FFT,Power Spectrum
Frequency[Hz],Level-L[dB],Level-R[dB]
10.767,53.56,51.796
21.533,48.816,49.409
32.3,49.757,48.903
43.066,49.736,50.487
53.833,49.389,49.653
64.6,50.005,50.362
75.366,49.788,50.918
86.133,50.184,50.268
96.899,49.754,50.4
107.67,49.91,49.959
118.43,49.708,49.914
129.2,49.328,49.824
139.97,49.865,49.641
150.73,49.739,49.983
161.5,49.935,49.968
172.27,49.492,49.778
183.03,49.79,49.717
193.8,49.936,50.121
204.57,50.271,50.385
215.33,50.429,50.559
226.1,50.814,50.726
236.87,50.439,51.061
247.63,51.3,51.36
258.4,51.7,51.907
269.17,51.853,52.155
279.93,51.95,52.354
290.7,52.471,52.696
301.46,53.108,53.622
312.23,53.433,53.877
323,53.681,54.096
333.76,53.774,54.216
344.53,54.536,55.139
355.3,54.8,55.347
366.06,54.785,55.176
376.83,55.007,55.659
387.6,55.909,56.657
398.36,56.285,56.791
409.13,56.072,56.537
419.9,56.035,56.557
430.66,56.514,57.315
441.43,56.931,57.684
452.2,56.838,57.367
462.96,57.015,57.55
473.73,57.367,58.089
484.5,57.313,58.035
495.26,57.412,57.973
506.03,57.693,58.366
516.8,58.009,58.651
527.56,58.309,58.981
538.33,58.57,59.214
549.1,59.028,59.687
559.86,59.348,60.039
570.63,60.136,60.827
581.4,60.894,61.611
592.16,61.312,62
602.93,62.447,63.171
613.7,63.304,64.076
624.46,64.292,65.052
635.23,65.424,66.176
646,66.327,67.079
656.76,68.061,68.864
667.53,68.633,69.444
678.3,70.026,70.779
689.06,70.756,71.553
699.83,70.701,71.516
710.6,67.732,68.48
721.36,95.885,96.712
732.13,112.55,113.37
742.9,112.37,113.19
753.66,94.837,95.657
764.43,66.09,66.902
775.2,70.869,71.656
785.96,71.701,72.476
796.73,70.905,71.795
807.5,70.266,71.166
818.26,68.488,69.315
829.03,67.846,68.606
839.79,66.73,67.566
850.56,65.799,66.661
861.33,64.504,65.383
872.09,63.494,64.403
882.86,63.226,64.143
893.63,61.937,62.846
904.39,61.012,61.87
915.16,60.595,61.516
925.93,59.927,60.887
936.69,59.565,60.554
947.46,59.346,60.396
958.23,59.202,60.208
968.99,58.502,59.418
979.76,58.383,59.38
990.53,59.274,60.298
1001.3,59.309,60.253
1012.1,58.246,59.046
1022.8,57.959,58.95
1033.6,59.334,60.422
1044.4,59.745,60.571
1055.1,58.07,58.782
1065.9,57.554,58.664
1076.7,59.479,60.588
1087.4,59.658,60.427
1098.2,58.137,58.675
1109,56.695,57.887
1119.7,58.664,59.849
1130.5,59.097,59.963
1141.3,57.234,57.666
1152,56.225,57.236
1162.8,57.785,59.171
1173.6,57.65,58.82
1184.3,55.808,56.279
1195.1,54.972,55.979
1205.9,56.999,58.24
1216.6,56.635,57.606
1227.4,54.165,54.814
1238.2,53.938,55.096
1248.9,56.355,57.439
1259.7,55.819,56.593
1270.5,53.343,53.98
1281.2,54.343,55.323
1292,55.847,56.702
1302.8,56.044,56.505
1313.5,54.286,54.948
1324.3,55.174,55.976
1335.1,57.189,57.666
1345.8,56.036,56.494
1356.6,56.328,56.933
1367.4,56.778,57.434
1378.1,58.543,58.782
1388.9,57.795,57.97
1399.7,57.841,58.549
1410.4,58.486,59.057
1421.2,58.287,58.417
1432,60.94,61.172
1442.7,59.848,60.184
1453.5,64.547,64.664
1464.3,101.58,101.35
1475,108.47,108.23
1485.8,100.68,100.44
1496.6,67.048,66.818
1507.3,60.174,59.752
1518.1,59.759,59.73
1528.9,59.366,59.628
1539.6,58.689,59.141
1550.4,58.214,58.273
1561.2,58.167,58.455
1571.9,57.469,57.729
1582.7,58.618,58.77
1593.5,57.241,57.417
1604.2,57.778,57.976
1615,57.089,57.098
1625.8,57.05,57.057
1636.5,56.411,56.507
1647.3,55.906,56.01
1658.1,55.904,55.778
1668.8,55.321,55.102
1679.6,54.903,54.859
1690.4,54.457,54.407
1701.1,53.768,53.615
1711.9,53.952,53.636
1722.7,52.881,52.638
1733.4,52.053,51.952
1744.2,52.132,51.688
1755,51.322,51.093
1765.7,51.045,50.639
1776.5,50.1,49.888
1787.3,49.943,49.786
1798,49.56,49.261
1808.8,49.256,49.117
1819.6,48.734,48.763
1830.3,48.799,48.819
1841.1,48.3,48.566
1851.9,48.608,48.747
1862.6,48.388,48.703
1873.4,48.521,48.899
1884.2,48.204,48.789
1894.9,48.629,48.838
1905.7,48.767,49.342
1916.5,48.369,48.906
1927.2,48.795,49.276
1938,48.699,49.075
1948.8,48.709,49.304
1959.5,48.692,49.13
1970.3,48.549,49.108
1981.1,48.705,48.871
1991.8,48.423,48.926
2002.6,48.093,48.642
2013.4,48.264,48.768
2024.1,47.942,48.003
2034.9,47.76,48.154
2045.7,47.842,48.257
2056.4,47.083,47.412
2067.2,47.113,47.384
2078,46.79,47.171
2088.7,46.21,46.629
2099.5,46.533,46.902
2110.3,45.737,46.184
2121,45.695,46.185
2131.8,45.23,45.767
2142.6,45.171,45.854
2153.3,44.797,45.626
2164.1,44.797,45.487
2174.9,43.986,45.211
2185.6,45.785,46.528
2196.4,56.451,55.812
2207.2,69.707,68.154
2217.9,69.96,68.726
2228.7,46.853,44.075
2239.5,45.451,46.51
2250.2,46.328,47.298
2261,46.588,47.492
2271.8,46.628,47.391
2282.5,46.573,47.734
2293.3,46.604,47.362
2304.1,46.488,47.441
2314.8,46.187,47.104
2325.6,46.359,47.263
2336.4,46.114,47.23
2347.1,45.99,46.899
2357.9,45.849,46.682
2368.7,45.914,46.895
2379.4,45.583,46.512
2390.2,45.299,46.331
2401,45.287,46.229
2411.7,45.078,46.103
2422.5,44.995,45.882
2433.3,44.645,45.697
2444,44.56,45.429
2454.8,44.408,45.432
2465.6,44.29,45.027
2476.3,44.079,45.334
2487.1,43.976,44.72
2497.9,43.878,45.073
2508.6,43.781,44.847
2519.4,43.825,44.902
2530.2,43.756,44.732
2540.9,43.72,44.92
2551.7,43.69,44.94
2562.5,43.928,45.104
2573.2,44.049,45.047
2584,43.993,45.008
2594.8,43.952,45.252
2605.5,44.201,45.265
2616.3,44.334,45.617
2627.1,44.307,45.486
2637.8,44.211,45.333
2648.6,44.656,45.693
2659.4,44.236,45.478
2670.1,44.73,45.922
2680.9,44.539,45.425
2691.7,44.36,45.543
2702.4,44.774,45.689
2713.2,44.306,45.763
2724,44.312,45.288
2734.7,44.347,45.474
2745.5,44.466,45.317
2756.3,44.089,45.471
2767,44.029,45.136
2777.8,43.909,45.006
2788.5,44.067,44.924
2799.3,43.499,44.809
2810.1,43.503,44.562
2820.8,43.507,44.657
2831.6,43.403,44.4
2842.4,43.25,44.248
2853.1,42.809,43.971
2863.9,43.232,44.381
2874.7,42.672,43.475
2885.4,42.613,43.797
2896.2,43.276,44.167
2907,41.699,43.216
2917.7,43.185,43.474
2928.5,43.634,44.628
2939.3,67.737,67.898
2950,74.007,74.186
2960.8,65.98,66.163
2971.6,43.064,44.021
2982.3,42.398,43.006
2993.1,42.467,44.136
3003.9,41.803,42.507
3014.6,42.001,43.261
3025.4,42.224,43.327
3036.2,42.075,42.989
3046.9,42.269,43.246
3057.7,41.902,43.287
3068.5,42.24,43.123
3079.2,42.074,43.188
3090,41.82,43.387
3100.8,41.826,43.022
3111.5,42.261,43.121
3122.3,41.777,43.229
3133.1,41.881,43.006
3143.8,41.787,43.324
3154.6,41.908,42.895
3165.4,41.797,43.23
3176.1,41.62,43.055
3186.9,41.786,42.916
3197.7,41.789,43.101
3208.4,41.547,42.948
3219.2,41.837,43.09
3230,41.327,42.728
3240.7,41.674,43.044
3251.5,41.44,42.535
3262.3,41.682,43.187
3273,41.259,42.455
3283.8,41.745,42.714
3294.6,41.364,42.728
3305.3,41.276,42.744
3316.1,41.627,42.577
3326.9,41.378,42.633
3337.6,41.356,42.584
3348.4,41.416,42.563
3359.2,41.324,42.612
3369.9,41.666,42.676
3380.7,41.097,42.193
3391.5,41.275,42.592
3402.2,41.561,42.508
3413,41.161,42.542
3423.8,41.201,42.241
3434.5,41.165,42.506
3445.3,41.366,42.4
3456.1,41.114,42.345
3466.8,41.053,42.278
3477.6,41.266,42.544
3488.4,40.909,42.333
3499.1,41.179,42.139
3509.9,40.991,42.628
3520.7,40.807,42.289
3531.4,40.967,42.302
3542.2,41.099,42.501
3553,40.824,42.392
3563.7,40.96,42.48
3574.5,40.689,42.14
3585.3,41.226,42.294
3596,40.424,42.303
3606.8,41.104,42.584
3617.6,40.704,42.036
3628.3,40.758,42.416
3639.1,40.797,42.215
3649.9,40.512,42.279
3660.6,41.139,42.337
3671.4,43.137,42.336
3682.2,47.119,44.288
3692.9,50.152,43.897
3703.7,39.003,42.098
3714.5,40.961,41.795
3725.2,40.682,41.945
3736,41.067,41.971
3746.8,40.735,41.886
3757.5,40.64,41.715
3768.3,40.742,41.75
3779.1,40.838,41.707
3789.8,40.509,41.853
3800.6,40.81,41.522
3811.4,40.787,41.834
3822.1,40.27,41.531
3832.9,40.666,41.912
3843.7,40.616,41.616
3854.4,40.4,41.626
3865.2,40.688,41.665
3876,40.316,41.833
3886.7,40.601,41.87
3897.5,40.381,41.608
3908.3,40.617,41.938
3919,40.443,41.795
3929.8,40.643,41.726
3940.6,40.231,41.779
3951.3,40.707,41.921
3962.1,40.276,41.85
3972.9,40.696,41.911
3983.6,40.341,41.894
3994.4,40.654,41.603
4005.2,40.303,41.887
4015.9,40.508,41.822
4026.7,40.132,41.799
4037.5,40.56,41.631
4048.2,40.253,41.597
4059,40.261,41.446
4069.8,40.28,41.922
4080.5,40.128,41.028
4091.3,40.28,41.55
4102.1,40.156,41.426
4112.8,39.905,41.388
4123.6,40.121,41.198
4134.4,39.962,41.283
4145.1,40.051,41.287
4155.9,39.937,41.284
4166.7,39.93,41.184
4177.4,39.894,40.958
4188.2,39.983,41.386
4199,39.902,41.131
4209.7,39.896,41.151
4220.5,40.1,41.391
4231.3,39.896,40.946
4242,39.912,41.442
4252.8,40.034,41.199
4263.6,39.868,41.191
4274.3,40.242,41.373
4285.1,39.865,41.477
4295.9,39.975,41.296
4306.6,40.09,41.305
4317.4,40.039,41.427
4328.2,39.974,41.21
4338.9,40.224,41.852
4349.7,39.835,40.857
4360.5,39.993,41.326
4371.2,40.164,41.656
4382,39.568,40.443
4392.8,42.752,43.325
4403.5,44.622,44.184
4414.3,71.682,68.942
4425.1,77.767,74.967
4435.8,69.043,66.268
4446.6,42.008,41.549
4457.4,42.792,41.994
4468.1,39.823,40.933
4478.9,39.623,40.595
4489.7,40.028,40.694
4500.4,39.812,40.848
4511.2,40.165,40.699
4522,39.413,40.78
4532.7,40.65,40.968
4543.5,39.904,40.675
4554.3,40.759,40.977
4565,39.776,40.85
4575.8,40.61,40.928
4586.6,40.593,41.258
4597.3,40.854,41.229
4608.1,41.323,41.174
4618.9,41.001,41.282
4629.6,41.595,41.334
4640.4,41.547,41.638
4651.2,41.747,41.433
4661.9,41.997,41.523
4672.7,41.968,41.917
4683.5,41.785,41.39
4694.2,42.364,41.685
4705,42.212,41.647
4715.8,42.544,41.636
4726.5,41.79,41.531
4737.3,42.727,41.436
4748.1,42.423,41.619
4758.8,42.388,41.394
4769.6,42.19,41.145
4780.4,42.242,41.248
4791.1,42.132,41.161
4801.9,42.03,41.048
4812.7,41.968,40.779
4823.4,41.724,40.839
4834.2,41.978,40.732
4845,41.403,40.853
4855.7,41.57,40.543
4866.5,40.885,40.403
4877.3,41.112,40.416
4888,40.846,40.502
4898.8,40.754,40.349
4909.6,40.403,40.456
4920.3,40.23,40.493
4931.1,40.256,40.469
4941.9,40.21,40.403
4952.6,39.664,40.749
4963.4,39.799,40.671
4974.2,39.578,40.765
4984.9,39.712,40.811
4995.7,39.464,40.861
5006.5,39.61,41.243
5017.2,39.361,41.095
5028,39.63,41.179
5038.8,39.572,41.136
5049.5,39.798,41.518
5060.3,39.551,41.203
5071.1,39.696,41.512
5081.8,39.883,41.332
5092.6,39.926,41.696
5103.4,39.866,41.507
5114.1,40.057,41.709
5124.9,41.646,44.108
5135.7,40.065,42.52
5146.4,38.601,41.426
5157.2,45.828,40.428
5168,35.254,42.634
5178.7,40.594,41.002
5189.5,40.173,41.146
5200.3,40.056,40.927
5211,39.991,40.714
5221.8,40.088,40.877
5232.6,39.97,40.523
5243.3,39.712,40.788
5254.1,39.946,40.418
5264.9,39.793,40.419
5275.6,39.747,40.43
5286.4,39.613,40.239
5297.2,39.795,40.466
5307.9,39.352,40.134
5318.7,39.616,40.393
5329.5,39.454,40.499
5340.2,39.494,40.204
5351,39.317,40.448
5361.8,39.252,40.516
5372.5,39.517,40.418
5383.3,39.294,40.666
5394.1,39.145,40.671
5404.8,39.459,40.653
5415.6,39.317,40.958
5426.4,39.297,40.842
5437.1,39.262,40.908
5447.9,39.283,41.055
5458.7,39.374,41.068
5469.4,39.254,41.081
5480.2,39.487,41.217
5491,39.089,41.09
5501.7,39.361,41.295
