FFT,Power Spectrum
Frequency[Hz],Level-L[dB],Level-R[dB]
10.767,62.091,61.24
21.533,60.086,60.537
32.3,60.175,60.164
43.066,60.211,60.476
53.833,60.142,60.379
64.6,60.23,60.326
75.366,60.321,60.49
86.133,60.435,60.608
96.899,60.157,60.49
107.67,60.529,60.688
118.43,60.382,60.568
129.2,60.457,60.72
139.97,60.713,60.87
150.73,60.667,60.902
161.5,60.821,61.157
172.27,60.59,60.813
183.03,61.02,61.259
193.8,60.974,61.27
204.57,61.08,61.342
215.33,61.308,61.572
226.1,61.279,61.571
236.87,61.426,61.767
247.63,61.506,61.814
258.4,61.797,62.078
269.17,61.749,62.149
279.93,62.101,62.369
290.7,62.071,62.461
301.46,62.274,62.61
312.23,62.578,62.929
323,62.557,62.947
333.76,62.879,63.245
344.53,62.998,63.439
355.3,63.104,63.474
366.06,63.536,63.951
376.83,63.538,64.014
387.6,63.804,64.241
398.36,64.193,64.637
409.13,64.251,64.724
419.9,64.672,65.15
430.66,64.842,65.326
441.43,64.961,65.442
452.2,65.54,66.087
462.96,65.793,66.282
473.73,65.986,66.551
484.5,66.382,66.918
495.26,66.774,67.343
506.03,67.019,67.575
516.8,67.668,68.267
527.56,67.831,68.398
538.33,68.469,69.091
549.1,69.024,69.628
559.86,69.264,69.914
570.63,70.282,70.911
581.4,70.394,71.044
592.16,71.43,72.089
602.93,71.928,72.583
613.7,72.708,73.387
624.46,73.741,74.43
635.23,74.493,75.201
646,75.534,76.236
656.76,76.361,77.088
667.53,77.494,78.234
678.3,78.871,79.608
689.06,79.925,80.685
699.83,81.363,82.128
710.6,82.818,83.613
721.36,101.13,101.91
732.13,118.31,119.09
742.9,118.43,119.21
753.66,101.81,102.59
764.43,83.173,83.971
775.2,81.517,82.309
785.96,80.096,80.894
796.73,79.345,80.109
807.5,78.213,79.012
818.26,76.82,77.618
829.03,76.176,76.951
839.79,74.459,75.285
850.56,74.204,74.979
861.33,73.024,73.843
872.09,72.504,73.301
882.86,71.691,72.501
893.63,70.843,71.699
904.39,70.332,71.176
915.16,69.517,70.408
925.93,69.053,69.935
936.69,68.441,69.368
947.46,68.017,68.909
958.23,67.391,68.362
968.99,67.042,67.949
979.76,66.615,67.578
990.53,66.23,67.227
1001.3,65.915,66.807
1012.1,65.366,66.363
1022.8,65.096,66.058
1033.6,64.832,65.818
1044.4,64.693,65.652
1055.1,64.135,65.135
1065.9,63.809,64.816
1076.7,63.848,64.796
1087.4,63.412,64.395
1098.2,63.13,64.24
1109,62.897,63.818
1119.7,62.894,63.931
1130.5,62.261,63.285
1141.3,62.323,63.337
1152,62.113,63.168
1162.8,61.556,62.554
1173.6,61.717,62.827
1184.3,61.496,62.436
1195.1,61.035,62.175
1205.9,61.092,62.08
1216.6,60.684,61.733
1227.4,60.85,61.95
1238.2,60.314,61.357
1248.9,60.356,61.366
1259.7,60.175,61.291
1270.5,59.836,60.933
1281.2,59.75,60.813
1292,59.762,60.864
1302.8,59.459,60.499
1313.5,59.218,60.319
1324.3,59.311,60.363
1335.1,58.789,59.991
1345.8,58.887,59.882
1356.6,58.965,60.097
1367.4,58.561,59.694
1378.1,58.363,59.446
1388.9,58.434,59.496
1399.7,58.081,59.264
1410.4,58.265,59.325
1421.2,57.68,58.835
1432,58.249,59.271
1442.7,57.555,58.71
1453.5,57.544,58.771
1464.3,72.41,70.942
1475,80.645,79.004
1485.8,72.912,71.392
1496.6,57.969,58.592
1507.3,56.902,58.114
1518.1,56.967,57.995
1528.9,56.617,57.845
1539.6,56.589,57.745
1550.4,56.615,57.788
1561.2,56.384,57.562
1571.9,56.321,57.447
1582.7,56.223,57.422
1593.5,56.175,57.336
1604.2,55.85,57.048
1615,56.068,57.226
1625.8,55.823,57.013
1636.5,55.695,56.876
1647.3,55.66,56.838
1658.1,55.468,56.699
1668.8,55.49,56.701
1679.6,55.34,56.532
1690.4,55.331,56.449
1701.1,55.147,56.401
1711.9,55.137,56.297
1722.7,55.017,56.228
1733.4,54.929,56.13
1744.2,54.799,56.062
1755,54.827,56.016
1765.7,54.634,55.875
1776.5,54.527,55.776
1787.3,54.696,55.775
1798,54.302,55.641
1808.8,54.447,55.614
1819.6,54.253,55.448
1830.3,54.156,55.448
1841.1,54.173,55.389
1851.9,54.093,55.308
1862.6,53.851,55.179
1873.4,54.05,55.171
1884.2,53.772,55.117
1894.9,53.789,54.959
1905.7,53.737,54.967
1916.5,53.543,54.86
1927.2,53.531,54.766
1938,53.543,54.832
1948.8,53.396,54.57
1959.5,53.354,54.582
1970.3,53.268,54.578
1981.1,53.18,54.45
1991.8,53.205,54.455
2002.6,52.969,54.199
2013.4,52.919,54.281
2024.1,53.036,54.216
2034.9,52.791,54.102
2045.7,52.707,53.959
2056.4,52.766,54.092
2067.2,52.609,53.843
2078,52.562,53.897
2088.7,52.463,53.684
2099.5,52.384,53.74
2110.3,52.181,53.566
2121,52.284,53.563
2131.8,52.184,53.458
2142.6,52.077,53.389
2153.3,51.854,53.238
2164.1,51.751,53.153
2174.9,51.868,53.154
2185.6,52.551,53.734
2196.4,57.72,57.906
2207.2,68.42,66.461
2217.9,70.776,69.772
2228.7,48.88,46.208
2239.5,51.997,53.325
2250.2,52.286,53.475
2261,52.369,53.538
2271.8,52.375,53.507
2282.5,52.292,53.324
2293.3,52.055,53.369
2304.1,52.127,53.232
2314.8,51.922,53.179
2325.6,51.89,53.068
2336.4,51.762,52.95
2347.1,51.837,53.042
2357.9,51.72,52.988
2368.7,51.58,52.77
2379.4,51.654,52.884
2390.2,51.435,52.678
2401,51.492,52.679
2411.7,51.358,52.681
2422.5,51.42,52.502
2433.3,51.274,52.62
2444,51.27,52.552
2454.8,51.259,52.398
2465.6,51.053,52.412
2476.3,51.176,52.299
2487.1,50.997,52.298
2497.9,51.06,52.256
2508.6,50.993,52.27
2519.4,50.918,52.232
2530.2,50.864,52.149
2540.9,50.785,52.06
2551.7,50.882,52.032
2562.5,50.745,52.039
2573.2,50.663,51.957
2584,50.66,51.942
2594.8,50.673,51.949
2605.5,50.577,51.832
2616.3,50.55,51.78
2627.1,50.568,51.824
2637.8,50.383,51.723
2648.6,50.427,51.646
2659.4,50.401,51.676
2670.1,50.397,51.521
2680.9,50.323,51.689
2691.7,50.268,51.6
2702.4,50.275,51.388
2713.2,50.139,51.536
2724,50.179,51.437
2734.7,50.17,51.35
2745.5,49.967,51.443
2756.3,50.148,51.319
2767,50.063,51.339
2777.8,49.869,51.199
2788.5,50.073,51.217
2799.3,49.885,51.21
2810.1,49.835,51.148
2820.8,49.775,51.146
2831.6,49.919,51.074
2842.4,49.81,51.112
2853.1,49.648,50.987
2863.9,49.634,51.017
2874.7,49.813,50.991
2885.4,49.586,50.918
2896.2,49.633,50.874
2907,49.542,50.927
2917.7,49.59,50.766
2928.5,49.691,51.067
2939.3,53.667,54.68
2950,57.198,58.646
2960.8,54.561,55.553
2971.6,49.127,50.606
2982.3,49.426,50.767
2993.1,49.385,50.586
3003.9,49.373,50.591
3014.6,49.249,50.602
3025.4,49.249,50.63
3036.2,49.248,50.449
3046.9,49.28,50.536
3057.7,49.097,50.436
3068.5,49.158,50.474
3079.2,49.11,50.472
3090,49.127,50.376
3100.8,49.059,50.39
3111.5,49.069,50.2
3122.3,48.931,50.439
3133.1,48.967,50.265
3143.8,49.045,50.227
3154.6,48.926,50.208
3165.4,48.933,50.136
3176.1,48.854,50.332
3186.9,48.835,50.113
3197.7,48.81,50.026
3208.4,48.854,50.28
3219.2,48.724,49.949
3230,48.827,50.113
3240.7,48.661,49.924
3251.5,48.673,49.991
3262.3,48.667,49.996
3273,48.712,49.954
3283.8,48.537,49.995
3294.6,48.607,49.823
3305.3,48.662,49.985
3316.1,48.514,49.709
3326.9,48.423,49.866
3337.6,48.608,49.779
3348.4,48.441,49.832
3359.2,48.519,49.805
3369.9,48.3,49.595
3380.7,48.481,49.743
3391.5,48.297,49.748
3402.2,48.433,49.667
3413,48.438,49.743
3423.8,48.183,49.512
3434.5,48.397,49.664
3445.3,48.209,49.591
3456.1,48.214,49.559
3466.8,48.313,49.5
3477.6,48.115,49.539
3488.4,48.249,49.496
3499.1,48.192,49.511
3509.9,48.056,49.447
3520.7,48.139,49.419
3531.4,48.17,49.441
3542.2,47.996,49.309
3553,48.01,49.361
3563.7,48.118,49.407
3574.5,48.018,49.34
3585.3,47.833,49.305
3596,48.027,49.395
3606.8,48.001,49.17
3617.6,47.934,49.255
3628.3,47.891,49.265
3639.1,47.867,49.173
3649.9,47.828,49.252
3660.6,47.939,49.128
3671.4,48.394,49.594
3682.2,42.018,52.284
3692.9,51.977,54.629
3703.7,46.867,49.102
3714.5,47.732,48.93
3725.2,47.879,49.161
3736,47.871,49.067
3746.8,47.769,49.055
3757.5,47.663,49.078
3768.3,47.75,49.064
3779.1,47.746,49.012
3789.8,47.66,48.973
3800.6,47.681,48.927
3811.4,47.791,49.074
3822.1,47.583,48.934
3832.9,47.625,48.887
3843.7,47.404,48.914
3854.4,47.862,48.962
3865.2,47.526,48.853
3876,47.401,48.932
3886.7,47.653,48.738
3897.5,47.651,48.912
3908.3,47.371,48.736
3919,47.532,48.838
3929.8,47.56,48.814
3940.6,47.322,48.717
3951.3,47.398,48.795
3962.1,47.598,48.66
3972.9,47.264,48.765
3983.6,47.492,48.803
3994.4,47.168,48.533
4005.2,47.522,48.799
4015.9,47.379,48.631
4026.7,47.334,48.643
4037.5,47.276,48.707
4048.2,47.378,48.511
4059,47.237,48.633
4069.8,47.363,48.611
4080.5,47.188,48.564
4091.3,47.282,48.557
4102.1,47.286,48.547
4112.8,47.28,48.636
4123.6,47.228,48.48
4134.4,46.962,48.451
4145.1,47.325,48.563
4155.9,47.267,48.534
4166.7,47.072,48.568
4177.4,47.247,48.184
4188.2,47.133,48.696
4199,47.073,48.271
4209.7,47.171,48.544
4220.5,47.183,48.429
4231.3,46.934,48.331
4242,47.175,48.443
4252.8,47.044,48.355
4263.6,47.145,48.383
4274.3,46.974,48.449
4285.1,47.043,48.126
4295.9,46.997,48.588
4306.6,47.143,48.227
4317.4,46.906,48.415
4328.2,46.983,48.163
4338.9,47.035,48.355
4349.7,46.993,48.236
4360.5,46.866,48.229
4371.2,47.119,48.416
4382,46.905,48.254
4392.8,46.911,48.104
4403.5,46.992,48.474
4414.3,52.834,51.942
4425.1,61.062,58.458
4435.8,54.058,53.261
4446.6,47.332,48.224
4457.4,46.861,48.156
4468.1,46.843,48.328
4478.9,46.853,48.064
4489.7,46.816,48.109
4500.4,46.916,48.219
4511.2,46.609,48.019
4522,46.96,48.259
4532.7,46.799,48.17
4543.5,46.754,48.016
4554.3,46.828,48.179
4565,46.822,48.078
4575.8,46.69,48.065
4586.6,46.77,47.992
4597.3,46.745,48.147
4608.1,46.875,48.08
4618.9,46.562,48.035
4629.6,46.789,48.105
4640.4,46.758,47.971
4651.2,46.721,48.083
4661.9,46.55,48.04
4672.7,46.763,47.957
4683.5,46.766,47.97
4694.2,46.618,48.121
4705,46.757,47.815
4715.8,46.69,48.083
4726.5,46.573,47.951
4737.3,46.646,48.074
4748.1,46.724,47.821
4758.8,46.627,48.037
4769.6,46.6,48.013
4780.4,46.514,47.849
4791.1,46.805,47.998
4801.9,46.562,47.882
4812.7,46.562,47.923
4823.4,46.766,47.932
4834.2,46.472,47.873
4845,46.655,47.905
4855.7,46.566,47.938
4866.5,46.715,47.928
4877.3,46.523,47.844
4888,46.632,47.964
4898.8,46.58,47.837
4909.6,46.622,47.81
4920.3,46.637,47.97
4931.1,46.449,47.783
4941.9,46.578,47.884
4952.6,46.608,47.802
4963.4,46.522,47.862
4974.2,46.636,47.867
4984.9,46.536,47.863
4995.7,46.57,47.729
5006.5,46.538,47.97
5017.2,46.706,47.711
5028,46.49,47.871
5038.8,46.67,47.81
5049.5,46.457,47.893
5060.3,46.848,47.79
5071.1,46.483,47.799
5081.8,46.581,47.923
5092.6,46.691,47.589
5103.4,46.51,47.945
5114.1,46.843,47.633
5124.9,46.767,48.048
5135.7,46.152,47.808
5146.4,43.619,48.201
5157.2,58.98,57.751
5168,55.292,58.209
5178.7,50.548,49.301
5189.5,46.186,47.869
5200.3,46.251,47.75
5211,46.211,47.843
5221.8,46.235,47.618
5232.6,46.16,47.775
5243.3,46.081,47.751
5254.1,46.316,47.788
5264.9,46.202,47.75
5275.6,46.249,47.751
5286.4,46.219,47.722
5297.2,46.332,47.691
5307.9,46.228,47.793
5318.7,46.24,47.721
5329.5,46.371,47.719
5340.2,46.183,47.755
5351,46.319,47.732
5361.8,46.201,47.727
5372.5,46.327,47.729
5383.3,46.303,47.655
5394.1,46.302,47.819
5404.8,46.291,47.728
5415.6,46.257,47.616
5426.4,46.357,47.813
5437.1,46.28,47.791
5447.9,46.255,47.635
5458.7,46.271,47.709
5469.4,46.338,47.728
5480.2,46.316,47.732
5491,46.267,47.733
5501.7,46.309,47.694
